#FORMAT      : EMSA/MAS SPECTRAL DATA FILE
#VERSION     : 1.0
#TITLE       : MineralStandards | Spn | Area 2 | Selected Area 1
#DATE        : 09-Jul-2024
#TIME        : 11:31
#OWNER       : EDAX APEX /ApexData
#NPOINTS     : 4096
#NCOLUMNS    : 1
#XUNITS      : Energy (EV)
#YUNITS      : Intensity
#DATATYPE    : XY
#XPERCHAN    : 10.000
#OFFSET      : 0.0
#CHOFFSET    : 0.0
#SIGNALTYPE  : EDS
#XLABEL      : X-RAY Energy
#YLABEL      : X-RAY Intensity
#BEAMKV   -kV: 15.0
#LIVETIME  -s: 10.0
#REALTIME  -s: 0.0
#ELEVANGLE-dg: 35.0
#AZIMANGLE-dg: 0.0
#TBEWIND  -cm: 0.000000
#TDEADLYR -cm: 0.030
#TACTYLR  -cm: 0.1
#COMMENT     : Converted by EDAX.APEX.V2.0 February 2020
##FILENAME       : \\naotvcsocc.coeit.osu.edu\CEMAS_Instrument\weber.1158\PhD\20240709\MineralStandards\Spn\Area 2\Selected Area 1_1.spc
##AmpTime (usec) : 0.96
##FPGA Version   : 0
##RESO (MnKa)    : 126.2
##EDAX Detector  : Octane Elect Super
##Analyzer Type  : DPP4
##Tilt Angle     : 0.0
##TakeOff Angle  : 36.8
##Elements       : 6,8,9,13,14,20,22,26
#SPECTRUM    : Spectral Data Starts Here
0.00,        0.0
10.00,        0.0
20.00,        1.0
30.00,        1.0
40.00,        5.0
50.00,        9.0
60.00,        8.0
70.00,        25.0
80.00,        53.0
90.00,        115.0
100.00,        172.0
110.00,        219.0
120.00,        221.0
130.00,        243.0
140.00,        197.0
150.00,        234.0
160.00,        284.0
170.00,        281.0
180.00,        328.0
190.00,        417.0
200.00,        603.0
210.00,        851.0
220.00,        1246.0
230.00,        2024.0
240.00,        3121.0
250.00,        4506.0
260.00,        5279.0
270.00,        5517.0
280.00,        4705.0
290.00,        3604.0
300.00,        2513.0
310.00,        1618.0
320.00,        1128.0
330.00,        934.0
340.00,        866.0
350.00,        840.0
360.00,        983.0
370.00,        1029.0
380.00,        1088.0
390.00,        1130.0
400.00,        1204.0
410.00,        1278.0
420.00,        1381.0
430.00,        1579.0
440.00,        1759.0
450.00,        2301.0
460.00,        3062.0
470.00,        4366.0
480.00,        6344.0
490.00,        9472.0
500.00,        13167.0
510.00,        15820.0
520.00,        16791.0
530.00,        15243.0
540.00,        11832.0
550.00,        7962.0
560.00,        4641.0
570.00,        2297.0
580.00,        1232.0
590.00,        659.0
600.00,        543.0
610.00,        501.0
620.00,        515.0
630.00,        614.0
640.00,        614.0
650.00,        824.0
660.00,        889.0
670.00,        992.0
680.00,        969.0
690.00,        948.0
700.00,        865.0
710.00,        750.0
720.00,        698.0
730.00,        631.0
740.00,        553.0
750.00,        535.0
760.00,        538.0
770.00,        528.0
780.00,        505.0
790.00,        518.0
800.00,        589.0
810.00,        584.0
820.00,        615.0
830.00,        685.0
840.00,        668.0
850.00,        750.0
860.00,        768.0
870.00,        749.0
880.00,        648.0
890.00,        614.0
900.00,        698.0
910.00,        678.0
920.00,        585.0
930.00,        636.0
940.00,        663.0
950.00,        668.0
960.00,        676.0
970.00,        710.0
980.00,        699.0
990.00,        759.0
1000.00,        721.0
1010.00,        847.0
1020.00,        789.0
1030.00,        818.0
1040.00,        791.0
1050.00,        764.0
1060.00,        850.0
1070.00,        878.0
1080.00,        802.0
1090.00,        819.0
1100.00,        831.0
1110.00,        898.0
1120.00,        851.0
1130.00,        878.0
1140.00,        915.0
1150.00,        938.0
1160.00,        868.0
1170.00,        968.0
1180.00,        1004.0
1190.00,        979.0
1200.00,        1030.0
1210.00,        1053.0
1220.00,        1150.0
1230.00,        1217.0
1240.00,        1295.0
1250.00,        1364.0
1260.00,        1363.0
1270.00,        1341.0
1280.00,        1289.0
1290.00,        1230.0
1300.00,        1267.0
1310.00,        1200.0
1320.00,        1125.0
1330.00,        1109.0
1340.00,        1139.0
1350.00,        1211.0
1360.00,        1191.0
1370.00,        1214.0
1380.00,        1216.0
1390.00,        1275.0
1400.00,        1342.0
1410.00,        1532.0
1420.00,        1832.0
1430.00,        2109.0
1440.00,        2810.0
1450.00,        3615.0
1460.00,        4395.0
1470.00,        5508.0
1480.00,        6023.0
1490.00,        6195.0
1500.00,        5910.0
1510.00,        5264.0
1520.00,        4432.0
1530.00,        3478.0
1540.00,        2862.0
1550.00,        2232.0
1560.00,        1897.0
1570.00,        1629.0
1580.00,        1576.0
1590.00,        1510.0
1600.00,        1506.0
1610.00,        1529.0
1620.00,        1587.0
1630.00,        1723.0
1640.00,        2105.0
1650.00,        2635.0
1660.00,        3469.0
1670.00,        5172.0
1680.00,        7835.0
1690.00,        11506.0
1700.00,        16758.0
1710.00,        22407.0
1720.00,        28545.0
1730.00,        32919.0
1740.00,        35048.0
1750.00,        34548.0
1760.00,        30586.0
1770.00,        25360.0
1780.00,        19646.0
1790.00,        14287.0
1800.00,        9716.0
1810.00,        6863.0
1820.00,        4830.0
1830.00,        3804.0
1840.00,        3082.0
1850.00,        2572.0
1860.00,        2331.0
1870.00,        2061.0
1880.00,        1761.0
1890.00,        1560.0
1900.00,        1525.0
1910.00,        1522.0
1920.00,        1469.0
1930.00,        1503.0
1940.00,        1507.0
1950.00,        1457.0
1960.00,        1541.0
1970.00,        1473.0
1980.00,        1419.0
1990.00,        1399.0
2000.00,        1427.0
2010.00,        1303.0
2020.00,        1300.0
2030.00,        1314.0
2040.00,        1250.0
2050.00,        1244.0
2060.00,        1178.0
2070.00,        1210.0
2080.00,        1174.0
2090.00,        1111.0
2100.00,        1153.0
2110.00,        1170.0
2120.00,        1215.0
2130.00,        1301.0
2140.00,        1263.0
2150.00,        1351.0
2160.00,        1325.0
2170.00,        1323.0
2180.00,        1286.0
2190.00,        1367.0
2200.00,        1287.0
2210.00,        1275.0
2220.00,        1270.0
2230.00,        1349.0
2240.00,        1330.0
2250.00,        1329.0
2260.00,        1328.0
2270.00,        1218.0
2280.00,        1236.0
2290.00,        1217.0
2300.00,        1188.0
2310.00,        1096.0
2320.00,        1089.0
2330.00,        1026.0
2340.00,        1037.0
2350.00,        1019.0
2360.00,        1033.0
2370.00,        1044.0
2380.00,        1034.0
2390.00,        1025.0
2400.00,        1029.0
2410.00,        991.0
2420.00,        1019.0
2430.00,        977.0
2440.00,        997.0
2450.00,        914.0
2460.00,        959.0
2470.00,        972.0
2480.00,        1006.0
2490.00,        955.0
2500.00,        945.0
2510.00,        1001.0
2520.00,        962.0
2530.00,        946.0
2540.00,        950.0
2550.00,        940.0
2560.00,        973.0
2570.00,        913.0
2580.00,        992.0
2590.00,        968.0
2600.00,        977.0
2610.00,        891.0
2620.00,        972.0
2630.00,        972.0
2640.00,        975.0
2650.00,        1005.0
2660.00,        1001.0
2670.00,        1036.0
2680.00,        964.0
2690.00,        966.0
2700.00,        917.0
2710.00,        1002.0
2720.00,        982.0
2730.00,        1044.0
2740.00,        1047.0
2750.00,        1008.0
2760.00,        1060.0
2770.00,        1048.0
2780.00,        1033.0
2790.00,        1005.0
2800.00,        1026.0
2810.00,        1042.0
2820.00,        1011.0
2830.00,        912.0
2840.00,        993.0
2850.00,        1011.0
2860.00,        954.0
2870.00,        976.0
2880.00,        948.0
2890.00,        1005.0
2900.00,        961.0
2910.00,        930.0
2920.00,        933.0
2930.00,        944.0
2940.00,        926.0
2950.00,        942.0
2960.00,        952.0
2970.00,        927.0
2980.00,        913.0
2990.00,        931.0
3000.00,        933.0
3010.00,        1047.0
3020.00,        922.0
3030.00,        909.0
3040.00,        914.0
3050.00,        913.0
3060.00,        918.0
3070.00,        909.0
3080.00,        981.0
3090.00,        956.0
3100.00,        962.0
3110.00,        977.0
3120.00,        961.0
3130.00,        918.0
3140.00,        986.0
3150.00,        968.0
3160.00,        937.0
3170.00,        950.0
3180.00,        942.0
3190.00,        934.0
3200.00,        973.0
3210.00,        1005.0
3220.00,        952.0
3230.00,        979.0
3240.00,        910.0
3250.00,        924.0
3260.00,        918.0
3270.00,        920.0
3280.00,        950.0
3290.00,        916.0
3300.00,        922.0
3310.00,        886.0
3320.00,        870.0
3330.00,        849.0
3340.00,        888.0
3350.00,        897.0
3360.00,        908.0
3370.00,        898.0
3380.00,        869.0
3390.00,        936.0
3400.00,        950.0
3410.00,        951.0
3420.00,        986.0
3430.00,        962.0
3440.00,        984.0
3450.00,        1008.0
3460.00,        1051.0
3470.00,        1063.0
3480.00,        1093.0
3490.00,        1073.0
3500.00,        1099.0
3510.00,        1097.0
3520.00,        1098.0
3530.00,        1176.0
3540.00,        1162.0
3550.00,        1259.0
3560.00,        1463.0
3570.00,        1720.0
3580.00,        2033.0
3590.00,        2581.0
3600.00,        3409.0
3610.00,        4717.0
3620.00,        6417.0
3630.00,        8743.0
3640.00,        11556.0
3650.00,        14837.0
3660.00,        17619.0
3670.00,        20541.0
3680.00,        23227.0
3690.00,        24705.0
3700.00,        24828.0
3710.00,        23953.0
3720.00,        21913.0
3730.00,        19269.0
3740.00,        16066.0
3750.00,        12831.0
3760.00,        9860.0
3770.00,        6920.0
3780.00,        5002.0
3790.00,        3577.0
3800.00,        2517.0
3810.00,        1844.0
3820.00,        1447.0
3830.00,        1202.0
3840.00,        1005.0
3850.00,        936.0
3860.00,        915.0
3870.00,        912.0
3880.00,        927.0
3890.00,        986.0
3900.00,        1037.0
3910.00,        1089.0
3920.00,        1261.0
3930.00,        1339.0
3940.00,        1562.0
3950.00,        1871.0
3960.00,        2161.0
3970.00,        2506.0
3980.00,        2859.0
3990.00,        3103.0
4000.00,        3546.0
4010.00,        3715.0
4020.00,        3640.0
4030.00,        3602.0
4040.00,        3441.0
4050.00,        3155.0
4060.00,        2770.0
4070.00,        2434.0
4080.00,        1916.0
4090.00,        1700.0
4100.00,        1378.0
4110.00,        1209.0
4120.00,        1031.0
4130.00,        921.0
4140.00,        842.0
4150.00,        783.0
4160.00,        765.0
4170.00,        743.0
4180.00,        794.0
4190.00,        803.0
4200.00,        723.0
4210.00,        772.0
4220.00,        750.0
4230.00,        752.0
4240.00,        713.0
4250.00,        727.0
4260.00,        692.0
4270.00,        644.0
4280.00,        693.0
4290.00,        669.0
4300.00,        650.0
4310.00,        686.0
4320.00,        705.0
4330.00,        679.0
4340.00,        771.0
4350.00,        783.0
4360.00,        873.0
4370.00,        940.0
4380.00,        1058.0
4390.00,        1284.0
4400.00,        1607.0
4410.00,        2167.0
4420.00,        2807.0
4430.00,        3882.0
4440.00,        4935.0
4450.00,        6463.0
4460.00,        8176.0
4470.00,        9808.0
4480.00,        11689.0
4490.00,        13215.0
4500.00,        14328.0
4510.00,        14814.0
4520.00,        15046.0
4530.00,        14244.0
4540.00,        13279.0
4550.00,        11725.0
4560.00,        10066.0
4570.00,        8137.0
4580.00,        6464.0
4590.00,        4846.0
4600.00,        3701.0
4610.00,        2722.0
4620.00,        1954.0
4630.00,        1493.0
4640.00,        1130.0
4650.00,        930.0
4660.00,        822.0
4670.00,        642.0
4680.00,        645.0
4690.00,        631.0
4700.00,        645.0
4710.00,        623.0
4720.00,        614.0
4730.00,        657.0
4740.00,        668.0
4750.00,        652.0
4760.00,        676.0
4770.00,        695.0
4780.00,        671.0
4790.00,        747.0
4800.00,        796.0
4810.00,        808.0
4820.00,        843.0
4830.00,        925.0
4840.00,        990.0
4850.00,        1194.0
4860.00,        1312.0
4870.00,        1487.0
4880.00,        1623.0
4890.00,        1832.0
4900.00,        2096.0
4910.00,        2270.0
4920.00,        2329.0
4930.00,        2490.0
4940.00,        2482.0
4950.00,        2530.0
4960.00,        2332.0
4970.00,        2260.0
4980.00,        1970.0
4990.00,        1729.0
5000.00,        1532.0
5010.00,        1283.0
5020.00,        1131.0
5030.00,        959.0
5040.00,        876.0
5050.00,        816.0
5060.00,        732.0
5070.00,        698.0
5080.00,        580.0
5090.00,        631.0
5100.00,        542.0
5110.00,        502.0
5120.00,        541.0
5130.00,        584.0
5140.00,        525.0
5150.00,        524.0
5160.00,        590.0
5170.00,        600.0
5180.00,        613.0
5190.00,        586.0
5200.00,        590.0
5210.00,        549.0
5220.00,        596.0
5230.00,        610.0
5240.00,        586.0
5250.00,        616.0
5260.00,        613.0
5270.00,        612.0
5280.00,        554.0
5290.00,        617.0
5300.00,        621.0
5310.00,        589.0
5320.00,        638.0
5330.00,        596.0
5340.00,        615.0
5350.00,        655.0
5360.00,        662.0
5370.00,        690.0
5380.00,        673.0
5390.00,        710.0
5400.00,        638.0
5410.00,        706.0
5420.00,        726.0
5430.00,        705.0
5440.00,        662.0
5450.00,        654.0
5460.00,        672.0
5470.00,        607.0
5480.00,        587.0
5490.00,        573.0
5500.00,        529.0
5510.00,        544.0
5520.00,        494.0
5530.00,        509.0
5540.00,        522.0
5550.00,        459.0
5560.00,        445.0
5570.00,        461.0
5580.00,        494.0
5590.00,        462.0
5600.00,        524.0
5610.00,        502.0
5620.00,        465.0
5630.00,        511.0
5640.00,        529.0
5650.00,        479.0
5660.00,        445.0
5670.00,        534.0
5680.00,        474.0
5690.00,        496.0
5700.00,        485.0
5710.00,        505.0
5720.00,        496.0
5730.00,        510.0
5740.00,        471.0
5750.00,        496.0
5760.00,        465.0
5770.00,        484.0
5780.00,        505.0
5790.00,        443.0
5800.00,        467.0
5810.00,        437.0
5820.00,        459.0
5830.00,        460.0
5840.00,        490.0
5850.00,        480.0
5860.00,        439.0
5870.00,        478.0
5880.00,        430.0
5890.00,        426.0
5900.00,        436.0
5910.00,        446.0
5920.00,        475.0
5930.00,        426.0
5940.00,        436.0
5950.00,        453.0
5960.00,        440.0
5970.00,        428.0
5980.00,        435.0
5990.00,        452.0
6000.00,        458.0
6010.00,        442.0
6020.00,        452.0
6030.00,        441.0
6040.00,        434.0
6050.00,        430.0
6060.00,        474.0
6070.00,        481.0
6080.00,        428.0
6090.00,        430.0
6100.00,        486.0
6110.00,        427.0
6120.00,        453.0
6130.00,        461.0
6140.00,        459.0
6150.00,        474.0
6160.00,        507.0
6170.00,        484.0
6180.00,        478.0
6190.00,        462.0
6200.00,        520.0
6210.00,        544.0
6220.00,        500.0
6230.00,        536.0
6240.00,        563.0
6250.00,        529.0
6260.00,        506.0
6270.00,        525.0
6280.00,        523.0
6290.00,        516.0
6300.00,        513.0
6310.00,        556.0
6320.00,        594.0
6330.00,        541.0
6340.00,        630.0
6350.00,        658.0
6360.00,        679.0
6370.00,        732.0
6380.00,        761.0
6390.00,        793.0
6400.00,        773.0
6410.00,        718.0
6420.00,        756.0
6430.00,        728.0
6440.00,        703.0
6450.00,        618.0
6460.00,        645.0
6470.00,        570.0
6480.00,        516.0
6490.00,        514.0
6500.00,        433.0
6510.00,        453.0
6520.00,        405.0
6530.00,        450.0
6540.00,        397.0
6550.00,        397.0
6560.00,        407.0
6570.00,        382.0
6580.00,        383.0
6590.00,        370.0
6600.00,        362.0
6610.00,        353.0
6620.00,        340.0
6630.00,        396.0
6640.00,        372.0
6650.00,        399.0
6660.00,        361.0
6670.00,        381.0
6680.00,        340.0
6690.00,        340.0
6700.00,        341.0
6710.00,        354.0
6720.00,        388.0
6730.00,        365.0
6740.00,        349.0
6750.00,        315.0
6760.00,        335.0
6770.00,        313.0
6780.00,        334.0
6790.00,        327.0
6800.00,        335.0
6810.00,        351.0
6820.00,        345.0
6830.00,        316.0
6840.00,        331.0
6850.00,        322.0
6860.00,        357.0
6870.00,        324.0
6880.00,        328.0
6890.00,        345.0
6900.00,        347.0
6910.00,        321.0
6920.00,        316.0
6930.00,        332.0
6940.00,        338.0
6950.00,        333.0
6960.00,        308.0
6970.00,        351.0
6980.00,        335.0
6990.00,        347.0
7000.00,        321.0
7010.00,        364.0
7020.00,        361.0
7030.00,        357.0
7040.00,        350.0
7050.00,        384.0
7060.00,        353.0
7070.00,        350.0
7080.00,        362.0
7090.00,        348.0
7100.00,        358.0
7110.00,        336.0
7120.00,        355.0
7130.00,        313.0
7140.00,        304.0
7150.00,        331.0
7160.00,        307.0
7170.00,        301.0
7180.00,        322.0
7190.00,        275.0
7200.00,        317.0
7210.00,        339.0
7220.00,        290.0
7230.00,        323.0
7240.00,        304.0
7250.00,        281.0
7260.00,        313.0
7270.00,        308.0
7280.00,        298.0
7290.00,        307.0
7300.00,        285.0
7310.00,        300.0
7320.00,        328.0
7330.00,        358.0
7340.00,        343.0
7350.00,        362.0
7360.00,        333.0
7370.00,        329.0
7380.00,        326.0
7390.00,        318.0
7400.00,        367.0
7410.00,        339.0
7420.00,        353.0
7430.00,        299.0
7440.00,        317.0
7450.00,        337.0
7460.00,        320.0
7470.00,        309.0
7480.00,        287.0
7490.00,        289.0
7500.00,        305.0
7510.00,        309.0
7520.00,        290.0
7530.00,        262.0
7540.00,        303.0
7550.00,        269.0
7560.00,        291.0
7570.00,        273.0
7580.00,        296.0
7590.00,        274.0
7600.00,        280.0
7610.00,        239.0
7620.00,        277.0
7630.00,        280.0
7640.00,        294.0
7650.00,        290.0
7660.00,        267.0
7670.00,        261.0
7680.00,        325.0
7690.00,        297.0
7700.00,        290.0
7710.00,        288.0
7720.00,        275.0
7730.00,        278.0
7740.00,        261.0
7750.00,        270.0
7760.00,        259.0
7770.00,        256.0
7780.00,        242.0
7790.00,        284.0
7800.00,        274.0
7810.00,        261.0
7820.00,        235.0
7830.00,        266.0
7840.00,        237.0
7850.00,        264.0
7860.00,        239.0
7870.00,        284.0
7880.00,        273.0
7890.00,        246.0
7900.00,        250.0
7910.00,        291.0
7920.00,        235.0
7930.00,        293.0
7940.00,        270.0
7950.00,        257.0
7960.00,        266.0
7970.00,        249.0
7980.00,        241.0
7990.00,        255.0
8000.00,        257.0
8010.00,        224.0
8020.00,        273.0
8030.00,        257.0
8040.00,        248.0
8050.00,        243.0
8060.00,        240.0
8070.00,        226.0
8080.00,        283.0
8090.00,        300.0
8100.00,        302.0
8110.00,        310.0
8120.00,        247.0
