#FORMAT      : EMSA/MAS SPECTRAL DATA FILE
#VERSION     : 1.0
#TITLE       : MineralStandards | Vrm | Area 2 | Selected Area 1
#DATE        : 20-May-2024
#TIME        : 14:58
#OWNER       : EDAX APEX /ApexData
#NPOINTS     : 4096
#NCOLUMNS    : 1
#XUNITS      : Energy (EV)
#YUNITS      : Intensity
#DATATYPE    : XY
#XPERCHAN    : 10.000
#OFFSET      : 0.0
#CHOFFSET    : 0.0
#SIGNALTYPE  : EDS
#XLABEL      : X-RAY Energy
#YLABEL      : X-RAY Intensity
#BEAMKV   -kV: 15.0
#LIVETIME  -s: 10.0
#REALTIME  -s: 0.0
#ELEVANGLE-dg: 35.0
#AZIMANGLE-dg: 0.0
#TBEWIND  -cm: 0.000000
#TDEADLYR -cm: 0.030
#TACTYLR  -cm: 0.1
#COMMENT     : Converted by EDAX.APEX.V2.0 February 2020
##FILENAME       : \\naotvcsocc.coeit.osu.edu\CEMAS_Instrument\weber.1158\PhD\20240520\QuantResults\MineralStandards\Vrm\Area 2\Selected Area 1_1.spc
##AmpTime (usec) : 0.48
##FPGA Version   : 0
##RESO (MnKa)    : 128.8
##EDAX Detector  : Octane Elect Super
##Analyzer Type  : DPP4
##Tilt Angle     : 0.0
##TakeOff Angle  : 36.9
##Elements       : 6,7,8,9,11,12,13,14,15,16,17,19,20,22,24,25,26,27
#SPECTRUM    : Spectral Data Starts Here
0.00,        0.0
10.00,        0.0
20.00,        0.0
30.00,        0.0
40.00,        0.0
50.00,        1.0
60.00,        1.0
70.00,        2.0
80.00,        1.0
90.00,        2.0
100.00,        14.0
110.00,        40.0
120.00,        80.0
130.00,        199.0
140.00,        293.0
150.00,        478.0
160.00,        746.0
170.00,        1041.0
180.00,        1571.0
190.00,        2453.0
200.00,        4264.0
210.00,        7846.0
220.00,        14420.0
230.00,        25218.0
240.00,        39006.0
250.00,        52894.0
260.00,        61531.0
270.00,        61237.0
280.00,        51880.0
290.00,        37391.0
300.00,        23363.0
310.00,        13004.0
320.00,        6671.0
330.00,        3801.0
340.00,        2922.0
350.00,        2590.0
360.00,        2387.0
370.00,        2535.0
380.00,        2516.0
390.00,        2524.0
400.00,        2494.0
410.00,        2667.0
420.00,        2946.0
430.00,        3521.0
440.00,        4848.0
450.00,        7169.0
460.00,        11631.0
470.00,        18464.0
480.00,        28754.0
490.00,        41203.0
500.00,        53630.0
510.00,        62655.0
520.00,        64740.0
530.00,        57867.0
540.00,        45534.0
550.00,        31826.0
560.00,        19718.0
570.00,        11144.0
580.00,        6348.0
590.00,        4092.0
600.00,        3329.0
610.00,        2972.0
620.00,        2941.0
630.00,        2943.0
640.00,        2979.0
650.00,        3107.0
660.00,        3438.0
670.00,        3933.0
680.00,        4479.0
690.00,        5031.0
700.00,        5417.0
710.00,        5452.0
720.00,        5378.0
730.00,        4925.0
740.00,        4471.0
750.00,        4165.0
760.00,        3938.0
770.00,        3643.0
780.00,        3363.0
790.00,        3169.0
800.00,        2825.0
810.00,        2649.0
820.00,        2501.0
830.00,        2248.0
840.00,        2219.0
850.00,        2134.0
860.00,        2260.0
870.00,        2092.0
880.00,        2110.0
890.00,        2033.0
900.00,        2171.0
910.00,        2009.0
920.00,        2089.0
930.00,        2130.0
940.00,        2232.0
950.00,        2300.0
960.00,        2350.0
970.00,        2418.0
980.00,        2537.0
990.00,        2658.0
1000.00,        2495.0
1010.00,        2715.0
1020.00,        2564.0
1030.00,        2595.0
1040.00,        2573.0
1050.00,        2423.0
1060.00,        2264.0
1070.00,        2156.0
1080.00,        2037.0
1090.00,        1993.0
1100.00,        1885.0
1110.00,        1983.0
1120.00,        1963.0
1130.00,        1977.0
1140.00,        1994.0
1150.00,        2173.0
1160.00,        2213.0
1170.00,        2683.0
1180.00,        3314.0
1190.00,        4512.0
1200.00,        6305.0
1210.00,        8765.0
1220.00,        11778.0
1230.00,        15237.0
1240.00,        17977.0
1250.00,        19270.0
1260.00,        18942.0
1270.00,        17432.0
1280.00,        14376.0
1290.00,        11040.0
1300.00,        8061.0
1310.00,        5648.0
1320.00,        4037.0
1330.00,        3113.0
1340.00,        2626.0
1350.00,        2202.0
1360.00,        2199.0
1370.00,        2164.0
1380.00,        2089.0
1390.00,        2201.0
1400.00,        2375.0
1410.00,        2730.0
1420.00,        3285.0
1430.00,        4044.0
1440.00,        5393.0
1450.00,        6900.0
1460.00,        8601.0
1470.00,        9958.0
1480.00,        10882.0
1490.00,        11155.0
1500.00,        10671.0
1510.00,        9099.0
1520.00,        7739.0
1530.00,        6164.0
1540.00,        4763.0
1550.00,        3628.0
1560.00,        2868.0
1570.00,        2569.0
1580.00,        2290.0
1590.00,        2182.0
1600.00,        2153.0
1610.00,        2067.0
1620.00,        2096.0
1630.00,        2143.0
1640.00,        2294.0
1650.00,        2742.0
1660.00,        3589.0
1670.00,        4933.0
1680.00,        7046.0
1690.00,        9659.0
1700.00,        13771.0
1710.00,        17689.0
1720.00,        21085.0
1730.00,        23954.0
1740.00,        25169.0
1750.00,        24334.0
1760.00,        21872.0
1770.00,        18238.0
1780.00,        14362.0
1790.00,        11098.0
1800.00,        8157.0
1810.00,        5899.0
1820.00,        4587.0
1830.00,        3764.0
1840.00,        3276.0
1850.00,        2950.0
1860.00,        2640.0
1870.00,        2433.0
1880.00,        2337.0
1890.00,        2206.0
1900.00,        2110.0
1910.00,        2086.0
1920.00,        2138.0
1930.00,        2060.0
1940.00,        2115.0
1950.00,        2058.0
1960.00,        2135.0
1970.00,        2034.0
1980.00,        2149.0
1990.00,        2076.0
2000.00,        2044.0
2010.00,        2072.0
2020.00,        1846.0
2030.00,        1825.0
2040.00,        1704.0
2050.00,        1612.0
2060.00,        1590.0
2070.00,        1490.0
2080.00,        1372.0
2090.00,        1474.0
2100.00,        1448.0
2110.00,        1343.0
2120.00,        1403.0
2130.00,        1434.0
2140.00,        1386.0
2150.00,        1431.0
2160.00,        1451.0
2170.00,        1472.0
2180.00,        1446.0
2190.00,        1455.0
2200.00,        1570.0
2210.00,        1572.0
2220.00,        1611.0
2230.00,        1595.0
2240.00,        1515.0
2250.00,        1566.0
2260.00,        1554.0
2270.00,        1447.0
2280.00,        1345.0
2290.00,        1302.0
2300.00,        1206.0
2310.00,        1183.0
2320.00,        1206.0
2330.00,        1082.0
2340.00,        1142.0
2350.00,        1062.0
2360.00,        962.0
2370.00,        943.0
2380.00,        1041.0
2390.00,        1009.0
2400.00,        1029.0
2410.00,        980.0
2420.00,        1027.0
2430.00,        1017.0
2440.00,        988.0
2450.00,        1006.0
2460.00,        989.0
2470.00,        997.0
2480.00,        995.0
2490.00,        956.0
2500.00,        946.0
2510.00,        970.0
2520.00,        931.0
2530.00,        934.0
2540.00,        931.0
2550.00,        863.0
2560.00,        970.0
2570.00,        881.0
2580.00,        887.0
2590.00,        876.0
2600.00,        837.0
2610.00,        893.0
2620.00,        866.0
2630.00,        896.0
2640.00,        873.0
2650.00,        894.0
2660.00,        830.0
2670.00,        865.0
2680.00,        849.0
2690.00,        885.0
2700.00,        921.0
2710.00,        864.0
2720.00,        876.0
2730.00,        876.0
2740.00,        823.0
2750.00,        871.0
2760.00,        831.0
2770.00,        836.0
2780.00,        846.0
2790.00,        829.0
2800.00,        770.0
2810.00,        777.0
2820.00,        797.0
2830.00,        789.0
2840.00,        853.0
2850.00,        827.0
2860.00,        818.0
2870.00,        842.0
2880.00,        853.0
2890.00,        786.0
2900.00,        877.0
2910.00,        831.0
2920.00,        885.0
2930.00,        820.0
2940.00,        823.0
2950.00,        838.0
2960.00,        855.0
2970.00,        850.0
2980.00,        860.0
2990.00,        803.0
3000.00,        848.0
3010.00,        825.0
3020.00,        798.0
3030.00,        778.0
3040.00,        808.0
3050.00,        748.0
3060.00,        770.0
3070.00,        749.0
3080.00,        733.0
3090.00,        673.0
3100.00,        720.0
3110.00,        696.0
3120.00,        752.0
3130.00,        773.0
3140.00,        716.0
3150.00,        729.0
3160.00,        716.0
3170.00,        784.0
3180.00,        800.0
3190.00,        776.0
3200.00,        812.0
3210.00,        873.0
3220.00,        971.0
3230.00,        1107.0
3240.00,        1245.0
3250.00,        1448.0
3260.00,        1696.0
3270.00,        2019.0
3280.00,        2351.0
3290.00,        2817.0
3300.00,        2916.0
3310.00,        3151.0
3320.00,        3230.0
3330.00,        3247.0
3340.00,        2921.0
3350.00,        2702.0
3360.00,        2373.0
3370.00,        1958.0
3380.00,        1669.0
3390.00,        1371.0
3400.00,        1221.0
3410.00,        1010.0
3420.00,        946.0
3430.00,        881.0
3440.00,        808.0
3450.00,        790.0
3460.00,        741.0
3470.00,        781.0
3480.00,        729.0
3490.00,        782.0
3500.00,        745.0
3510.00,        731.0
3520.00,        803.0
3530.00,        824.0
3540.00,        792.0
3550.00,        811.0
3560.00,        865.0
3570.00,        940.0
3580.00,        886.0
3590.00,        901.0
3600.00,        945.0
3610.00,        898.0
3620.00,        831.0
3630.00,        862.0
3640.00,        827.0
3650.00,        788.0
3660.00,        749.0
3670.00,        697.0
3680.00,        671.0
3690.00,        669.0
3700.00,        673.0
3710.00,        618.0
3720.00,        672.0
3730.00,        637.0
3740.00,        612.0
3750.00,        566.0
3760.00,        566.0
3770.00,        634.0
3780.00,        575.0
3790.00,        576.0
3800.00,        612.0
3810.00,        587.0
3820.00,        588.0
3830.00,        528.0
3840.00,        576.0
3850.00,        547.0
3860.00,        550.0
3870.00,        540.0
3880.00,        538.0
3890.00,        508.0
3900.00,        488.0
3910.00,        509.0
3920.00,        546.0
3930.00,        516.0
3940.00,        488.0
3950.00,        458.0
3960.00,        509.0
3970.00,        497.0
3980.00,        474.0
3990.00,        494.0
4000.00,        472.0
4010.00,        528.0
4020.00,        446.0
4030.00,        506.0
4040.00,        505.0
4050.00,        466.0
4060.00,        460.0
4070.00,        438.0
4080.00,        490.0
4090.00,        467.0
4100.00,        459.0
4110.00,        485.0
4120.00,        427.0
4130.00,        466.0
4140.00,        481.0
4150.00,        438.0
4160.00,        480.0
4170.00,        423.0
4180.00,        438.0
4190.00,        499.0
4200.00,        472.0
4210.00,        416.0
4220.00,        430.0
4230.00,        435.0
4240.00,        419.0
4250.00,        467.0
4260.00,        432.0
4270.00,        451.0
4280.00,        412.0
4290.00,        420.0
4300.00,        454.0
4310.00,        444.0
4320.00,        438.0
4330.00,        424.0
4340.00,        423.0
4350.00,        454.0
4360.00,        386.0
4370.00,        426.0
4380.00,        434.0
4390.00,        456.0
4400.00,        441.0
4410.00,        478.0
4420.00,        462.0
4430.00,        522.0
4440.00,        571.0
4450.00,        553.0
4460.00,        584.0
4470.00,        591.0
4480.00,        641.0
4490.00,        688.0
4500.00,        688.0
4510.00,        672.0
4520.00,        656.0
4530.00,        624.0
4540.00,        609.0
4550.00,        598.0
4560.00,        572.0
4570.00,        525.0
4580.00,        512.0
4590.00,        489.0
4600.00,        458.0
4610.00,        428.0
4620.00,        415.0
4630.00,        417.0
4640.00,        400.0
4650.00,        384.0
4660.00,        390.0
4670.00,        391.0
4680.00,        420.0
4690.00,        393.0
4700.00,        411.0
4710.00,        407.0
4720.00,        405.0
4730.00,        404.0
4740.00,        426.0
4750.00,        389.0
4760.00,        392.0
4770.00,        391.0
4780.00,        437.0
4790.00,        369.0
4800.00,        409.0
4810.00,        400.0
4820.00,        408.0
4830.00,        372.0
4840.00,        390.0
4850.00,        424.0
4860.00,        366.0
4870.00,        406.0
4880.00,        394.0
4890.00,        408.0
4900.00,        443.0
4910.00,        392.0
4920.00,        415.0
4930.00,        410.0
4940.00,        367.0
4950.00,        406.0
4960.00,        410.0
4970.00,        389.0
4980.00,        373.0
4990.00,        360.0
5000.00,        391.0
5010.00,        396.0
5020.00,        398.0
5030.00,        384.0
5040.00,        361.0
5050.00,        371.0
5060.00,        355.0
5070.00,        354.0
5080.00,        372.0
5090.00,        333.0
5100.00,        332.0
5110.00,        329.0
5120.00,        347.0
5130.00,        307.0
5140.00,        318.0
5150.00,        333.0
5160.00,        337.0
5170.00,        354.0
5180.00,        366.0
5190.00,        327.0
5200.00,        336.0
5210.00,        314.0
5220.00,        320.0
5230.00,        338.0
5240.00,        307.0
5250.00,        332.0
5260.00,        316.0
5270.00,        322.0
5280.00,        323.0
5290.00,        325.0
5300.00,        294.0
5310.00,        326.0
5320.00,        320.0
5330.00,        303.0
5340.00,        312.0
5350.00,        353.0
5360.00,        335.0
5370.00,        344.0
5380.00,        337.0
5390.00,        345.0
5400.00,        340.0
5410.00,        345.0
5420.00,        366.0
5430.00,        351.0
5440.00,        341.0
5450.00,        320.0
5460.00,        338.0
5470.00,        329.0
5480.00,        330.0
5490.00,        315.0
5500.00,        283.0
5510.00,        303.0
5520.00,        295.0
5530.00,        284.0
5540.00,        328.0
5550.00,        317.0
5560.00,        306.0
5570.00,        289.0
5580.00,        271.0
5590.00,        270.0
5600.00,        282.0
5610.00,        302.0
5620.00,        291.0
5630.00,        290.0
5640.00,        280.0
5650.00,        290.0
5660.00,        269.0
5670.00,        287.0
5680.00,        297.0
5690.00,        241.0
5700.00,        304.0
5710.00,        274.0
5720.00,        259.0
5730.00,        285.0
5740.00,        302.0
5750.00,        269.0
5760.00,        264.0
5770.00,        292.0
5780.00,        258.0
5790.00,        271.0
5800.00,        294.0
5810.00,        272.0
5820.00,        270.0
5830.00,        273.0
5840.00,        282.0
5850.00,        279.0
5860.00,        297.0
5870.00,        292.0
5880.00,        288.0
5890.00,        289.0
5900.00,        259.0
5910.00,        266.0
5920.00,        256.0
5930.00,        291.0
5940.00,        299.0
5950.00,        266.0
5960.00,        273.0
5970.00,        236.0
5980.00,        260.0
5990.00,        258.0
6000.00,        253.0
6010.00,        258.0
6020.00,        280.0
6030.00,        231.0
6040.00,        247.0
6050.00,        304.0
6060.00,        245.0
6070.00,        238.0
6080.00,        222.0
6090.00,        253.0
6100.00,        246.0
6110.00,        224.0
6120.00,        237.0
6130.00,        248.0
6140.00,        278.0
6150.00,        255.0
6160.00,        242.0
6170.00,        260.0
6180.00,        232.0
6190.00,        251.0
6200.00,        272.0
6210.00,        245.0
6220.00,        248.0
6230.00,        245.0
6240.00,        276.0
6250.00,        291.0
6260.00,        274.0
6270.00,        313.0
6280.00,        375.0
6290.00,        399.0
6300.00,        485.0
6310.00,        538.0
6320.00,        610.0
6330.00,        747.0
6340.00,        846.0
6350.00,        1023.0
6360.00,        1137.0
6370.00,        1244.0
6380.00,        1346.0
6390.00,        1424.0
6400.00,        1470.0
6410.00,        1492.0
6420.00,        1422.0
6430.00,        1360.0
6440.00,        1228.0
6450.00,        1175.0
6460.00,        1028.0
6470.00,        888.0
6480.00,        805.0
6490.00,        662.0
6500.00,        578.0
6510.00,        514.0
6520.00,        453.0
6530.00,        390.0
6540.00,        371.0
6550.00,        315.0
6560.00,        341.0
6570.00,        297.0
6580.00,        314.0
6590.00,        276.0
6600.00,        276.0
6610.00,        307.0
6620.00,        302.0
6630.00,        322.0
6640.00,        279.0
6650.00,        286.0
6660.00,        292.0
6670.00,        269.0
6680.00,        286.0
6690.00,        241.0
6700.00,        258.0
6710.00,        272.0
6720.00,        267.0
6730.00,        270.0
6740.00,        253.0
6750.00,        236.0
6760.00,        252.0
6770.00,        261.0
6780.00,        230.0
6790.00,        255.0
6800.00,        238.0
6810.00,        244.0
6820.00,        233.0
6830.00,        227.0
6840.00,        240.0
6850.00,        228.0
6860.00,        258.0
6870.00,        264.0
6880.00,        257.0
6890.00,        270.0
6900.00,        236.0
6910.00,        257.0
6920.00,        251.0
6930.00,        275.0
6940.00,        271.0
6950.00,        261.0
6960.00,        264.0
6970.00,        272.0
6980.00,        284.0
6990.00,        324.0
7000.00,        316.0
7010.00,        330.0
7020.00,        333.0
7030.00,        353.0
7040.00,        344.0
7050.00,        354.0
7060.00,        378.0
7070.00,        401.0
7080.00,        353.0
7090.00,        367.0
7100.00,        332.0
7110.00,        327.0
7120.00,        318.0
7130.00,        269.0
7140.00,        247.0
7150.00,        267.0
7160.00,        247.0
7170.00,        237.0
7180.00,        238.0
7190.00,        226.0
7200.00,        215.0
7210.00,        190.0
7220.00,        203.0
7230.00,        220.0
7240.00,        198.0
7250.00,        199.0
7260.00,        187.0
7270.00,        195.0
7280.00,        205.0
7290.00,        191.0
7300.00,        205.0
7310.00,        182.0
7320.00,        178.0
7330.00,        191.0
7340.00,        200.0
7350.00,        184.0
7360.00,        202.0
7370.00,        197.0
7380.00,        194.0
7390.00,        184.0
7400.00,        177.0
7410.00,        186.0
7420.00,        205.0
7430.00,        178.0
7440.00,        175.0
7450.00,        196.0
7460.00,        183.0
7470.00,        181.0
7480.00,        214.0
7490.00,        196.0
7500.00,        198.0
7510.00,        169.0
7520.00,        199.0
7530.00,        188.0
7540.00,        194.0
7550.00,        191.0
7560.00,        187.0
7570.00,        192.0
7580.00,        208.0
7590.00,        191.0
7600.00,        182.0
7610.00,        196.0
7620.00,        187.0
7630.00,        167.0
7640.00,        186.0
7650.00,        168.0
7660.00,        174.0
7670.00,        169.0
7680.00,        208.0
7690.00,        180.0
7700.00,        163.0
7710.00,        182.0
7720.00,        149.0
7730.00,        165.0
7740.00,        158.0
7750.00,        156.0
7760.00,        189.0
7770.00,        168.0
7780.00,        175.0
7790.00,        182.0
7800.00,        166.0
7810.00,        161.0
7820.00,        162.0
7830.00,        165.0
7840.00,        186.0
7850.00,        158.0
7860.00,        146.0
7870.00,        190.0
7880.00,        180.0
7890.00,        152.0
7900.00,        182.0
7910.00,        160.0
7920.00,        182.0
7930.00,        175.0
7940.00,        148.0
7950.00,        179.0
7960.00,        169.0
7970.00,        179.0
7980.00,        187.0
7990.00,        180.0
8000.00,        164.0
8010.00,        180.0
8020.00,        191.0
8030.00,        177.0
8040.00,        200.0
8050.00,        180.0
8060.00,        187.0
8070.00,        184.0
8080.00,        190.0
8090.00,        171.0
8100.00,        166.0
8110.00,        165.0
